Freq(Hz), Fundamental (dB), THD (%)
10.000, 68.947, 0.0179
10.293, 69.335, 0.0169
10.595, 69.783, 0.0147
10.905, 70.235, 0.0125
11.225, 70.678, 0.0107
11.554, 71.107, 0.0092
11.892, 71.519, 0.0088
12.241, 71.912, 0.0104
12.599, 72.285, 0.0106
12.968, 72.638, 0.0077
13.348, 72.971, 0.0051
13.740, 73.282, 0.0061
14.142, 73.572, 0.0074
14.557, 73.840, 0.0075
14.983, 74.087, 0.0070
15.422, 74.312, 0.0064
15.874, 74.517, 0.0057
16.339, 74.702, 0.0051
16.818, 74.867, 0.0047
17.311, 75.014, 0.0048
17.818, 75.143, 0.0066
18.340, 75.255, 0.0072
18.877, 75.351, 0.0075
19.431, 75.433, 0.0065
20.000, 75.501, 0.0062
20.586, 75.556, 0.0061
21.189, 75.599, 0.0059
21.810, 75.632, 0.0060
22.449, 75.654, 0.0056
23.107, 75.667, 0.0046
23.784, 75.672, 0.0051
24.481, 75.668, 0.0071
25.198, 75.658, 0.0089
25.937, 75.640, 0.0052
26.697, 75.616, 0.0041
27.479, 75.587, 0.0037
28.284, 75.552, 0.0037
29.113, 75.512, 0.0034
29.966, 75.467, 0.0032
30.844, 75.417, 0.0026
31.748, 75.362, 0.0028
32.678, 75.304, 0.0030
33.636, 75.241, 0.0027
34.621, 75.175, 0.0026
35.636, 75.105, 0.0028
36.680, 75.031, 0.0029
37.755, 74.953, 0.0027
38.861, 74.871, 0.0032
40.000, 74.786, 0.0029
41.172, 74.697, 0.0027
42.379, 74.605, 0.0029
43.620, 74.509, 0.0033
44.898, 74.410, 0.0024
46.214, 74.307, 0.0021
47.568, 74.200, 0.0025
48.962, 74.091, 0.0035
50.397, 73.977, 0.0043
51.874, 73.861, 0.0025
53.394, 73.740, 0.0025
54.958, 73.616, 0.0027
56.569, 73.489, 0.0031
58.226, 73.359, 0.0037
59.932, 73.225, 0.0034
61.688, 73.088, 0.0025
63.496, 72.948, 0.0030
65.357, 72.804, 0.0031
67.272, 72.657, 0.0032
69.243, 72.508, 0.0035
71.272, 72.355, 0.0031
73.360, 72.199, 0.0031
75.510, 72.040, 0.0033
77.723, 71.878, 0.0032
80.000, 71.714, 0.0029
82.344, 71.547, 0.0030
84.757, 71.377, 0.0031
87.241, 71.205, 0.0037
89.797, 71.030, 0.0030
92.428, 70.853, 0.0028
95.137, 70.674, 0.0026
97.924, 70.492, 0.0030
100.794, 70.309, 0.0038
103.747, 70.123, 0.0025
106.787, 69.936, 0.0023
109.916, 69.747, 0.0030
113.137, 69.557, 0.0032
116.452, 69.365, 0.0045
119.865, 69.171, 0.0024
123.377, 68.976, 0.0025
126.992, 68.780, 0.0024
130.713, 68.583, 0.0024
134.543, 68.385, 0.0023
138.486, 68.187, 0.0024
142.544, 67.987, 0.0032
146.721, 67.787, 0.0031
151.020, 67.586, 0.0038
155.445, 67.385, 0.0025
160.000, 67.184, 0.0024
164.688, 66.982, 0.0029
169.514, 66.780, 0.0029
174.481, 66.579, 0.0054
179.594, 66.378, 0.0032
184.856, 66.176, 0.0027
190.273, 65.976, 0.0028
195.849, 65.776, 0.0032
201.587, 65.576, 0.0041
207.494, 65.377, 0.0029
213.574, 65.179, 0.0031
219.833, 64.982, 0.0038
226.274, 64.786, 0.0043
232.905, 64.591, 0.0038
239.729, 64.398, 0.0039
246.754, 64.205, 0.0046
253.984, 64.015, 0.0048
261.426, 63.825, 0.0040
269.087, 63.638, 0.0040
276.972, 63.452, 0.0040
285.088, 63.268, 0.0048
293.441, 63.086, 0.0048
302.040, 62.906, 0.0055
310.890, 62.728, 0.0054
320.000, 62.553, 0.0055
329.377, 62.379, 0.0077
339.028, 62.208, 0.0074
348.962, 62.039, 0.0066
359.188, 61.874, 0.0063
369.713, 61.710, 0.0070
380.546, 61.549, 0.0070
391.697, 61.391, 0.0056
403.175, 61.235, 0.0068
414.989, 61.083, 0.0065
427.149, 60.932, 0.0102
439.665, 60.785, 0.0071
452.548, 60.640, 0.0066
465.809, 60.498, 0.0068
479.458, 60.359, 0.0075
493.507, 60.223, 0.0100
507.968, 60.089, 0.0100
522.853, 59.958, 0.0086
538.174, 59.830, 0.0088
553.943, 59.704, 0.0091
570.175, 59.581, 0.0093
586.883, 59.460, 0.0103
604.080, 59.342, 0.0136
621.780, 59.225, 0.0113
640.000, 59.112, 0.0115
658.753, 59.000, 0.0125
678.056, 58.890, 0.0123
697.925, 58.783, 0.0129
718.376, 58.677, 0.0134
739.426, 58.573, 0.0143
761.093, 58.470, 0.0135
783.394, 58.369, 0.0122
806.349, 58.269, 0.0126
829.977, 58.171, 0.0133
854.297, 58.073, 0.0138
879.330, 57.976, 0.0135
905.097, 57.881, 0.0135
931.618, 57.785, 0.0136
958.917, 57.690, 0.0136
987.015, 57.596, 0.0167
1015.937, 57.501, 0.0169
1045.706, 57.407, 0.0155
1076.347, 57.312, 0.0155
1107.887, 57.217, 0.0160
1140.350, 57.122, 0.0166
1173.765, 57.026, 0.0170
1208.159, 56.929, 0.0186
1243.561, 56.831, 0.0186
1280.000, 56.732, 0.0181
1317.507, 56.632, 0.0185
1356.113, 56.531, 0.0180
1395.850, 56.428, 0.0196
1436.751, 56.323, 0.0199
1478.851, 56.217, 0.0231
1522.185, 56.108, 0.0235
1566.789, 55.998, 0.0217
1612.699, 55.886, 0.0219
1659.955, 55.771, 0.0222
1708.595, 55.654, 0.0224
1758.661, 55.534, 0.0230
1810.193, 55.412, 0.0249
1863.236, 55.288, 0.0256
1917.833, 55.160, 0.0259
1974.030, 55.030, 0.0275
2031.873, 54.898, 0.0282
2091.412, 54.762, 0.0279
2152.695, 54.623, 0.0273
2215.774, 54.482, 0.0283
2280.701, 54.337, 0.0287
2347.530, 54.190, 0.0293
2416.318, 54.039, 0.0312
2487.122, 53.885, 0.0304
2560.000, 53.728, 0.0305
2635.014, 53.568, 0.0321
2712.226, 53.405, 0.0324
2791.700, 53.239, 0.0342
2873.503, 53.070, 0.0339
2957.703, 52.897, 0.0356
3044.370, 52.722, 0.0362
3133.577, 52.545, 0.0350
3225.398, 52.364, 0.0356
3319.909, 52.180, 0.0370
3417.190, 51.993, 0.0373
3517.321, 51.804, 0.0375
3620.387, 51.613, 0.0385
3726.472, 51.419, 0.0390
3835.666, 51.222, 0.0394
3948.060, 51.023, 0.0415
4063.747, 50.823, 0.0425
4182.824, 50.621, 0.0435
4305.390, 50.416, 0.0420
4431.547, 50.210, 0.0417
4561.401, 50.001, 0.0444
4695.061, 49.791, 0.0463
4832.637, 49.579, 0.0471
4974.244, 49.366, 0.0467
5120.000, 49.150, 0.0467
5270.027, 48.933, 0.0463
5424.451, 48.713, 0.0470
5583.399, 48.492, 0.0485
5747.006, 48.269, 0.0476
5915.406, 48.044, 0.0499
6088.740, 47.818, 0.0535
6267.154, 47.591, 0.0534
6450.796, 47.362, 0.0526
6639.818, 47.132, 0.0535
6834.380, 46.900, 0.0564
7034.643, 46.668, 0.0563
7240.773, 46.434, 0.0564
7452.944, 46.198, 0.0541
7671.332, 45.960, 0.0541
7896.120, 45.721, 0.0581
8127.493, 45.481, 0.0605
8365.647, 45.241, 0.0617
8610.779, 45.002, 0.0647
8863.095, 44.763, 0.0658
9122.803, 44.525, 0.0649
9390.121, 44.287, 0.0664
9665.273, 44.048, 0.0654
9948.487, 43.805, 0.0641
10240.000, 43.559, 0.0582
10540.055, 43.309, 0.0504
10848.902, 43.058, 0.0416
