Freq(Hz), Fundamental (dB), THD (%)
10.000, 69.434, 0.0158
10.293, 69.812, 0.0150
10.595, 70.248, 0.0134
10.905, 70.687, 0.0133
11.225, 71.116, 0.0136
11.554, 71.530, 0.0124
11.892, 71.925, 0.0103
12.241, 72.301, 0.0103
12.599, 72.657, 0.0105
12.968, 72.992, 0.0090
13.348, 73.306, 0.0087
13.740, 73.598, 0.0094
14.142, 73.869, 0.0103
14.557, 74.118, 0.0105
14.983, 74.346, 0.0101
15.422, 74.554, 0.0099
15.874, 74.741, 0.0115
16.339, 74.909, 0.0151
16.818, 75.058, 0.0155
17.311, 75.190, 0.0120
17.818, 75.305, 0.0100
18.340, 75.404, 0.0088
18.877, 75.488, 0.0081
19.431, 75.558, 0.0077
20.000, 75.616, 0.0066
20.586, 75.662, 0.0056
21.189, 75.697, 0.0050
21.810, 75.722, 0.0046
22.449, 75.738, 0.0052
23.107, 75.746, 0.0056
23.784, 75.745, 0.0055
24.481, 75.738, 0.0073
25.198, 75.723, 0.0088
25.937, 75.703, 0.0044
26.697, 75.676, 0.0035
27.479, 75.644, 0.0038
28.284, 75.607, 0.0037
29.113, 75.565, 0.0036
29.966, 75.519, 0.0044
30.844, 75.468, 0.0031
31.748, 75.413, 0.0029
32.678, 75.354, 0.0028
33.636, 75.291, 0.0030
34.621, 75.225, 0.0026
35.636, 75.154, 0.0027
36.680, 75.080, 0.0028
37.755, 75.002, 0.0037
38.861, 74.921, 0.0024
40.000, 74.836, 0.0022
41.172, 74.748, 0.0021
42.379, 74.656, 0.0022
43.620, 74.560, 0.0026
44.898, 74.462, 0.0021
46.214, 74.359, 0.0021
47.568, 74.253, 0.0018
48.962, 74.144, 0.0032
50.397, 74.031, 0.0053
51.874, 73.915, 0.0028
53.394, 73.795, 0.0018
54.958, 73.672, 0.0022
56.569, 73.546, 0.0022
58.226, 73.416, 0.0027
59.932, 73.282, 0.0023
61.688, 73.146, 0.0022
63.496, 73.006, 0.0022
65.357, 72.863, 0.0020
67.272, 72.717, 0.0023
69.243, 72.567, 0.0026
71.272, 72.415, 0.0026
73.360, 72.259, 0.0029
75.510, 72.101, 0.0045
77.723, 71.940, 0.0027
80.000, 71.776, 0.0025
82.344, 71.609, 0.0022
84.757, 71.440, 0.0021
87.241, 71.268, 0.0026
89.797, 71.093, 0.0022
92.428, 70.916, 0.0021
95.137, 70.737, 0.0019
97.924, 70.556, 0.0019
100.794, 70.373, 0.0026
103.747, 70.188, 0.0022
106.787, 70.001, 0.0023
109.916, 69.812, 0.0027
113.137, 69.622, 0.0028
116.452, 69.430, 0.0035
119.865, 69.236, 0.0025
123.377, 69.041, 0.0029
126.992, 68.846, 0.0027
130.713, 68.649, 0.0031
134.543, 68.451, 0.0031
138.486, 68.252, 0.0034
142.544, 68.052, 0.0042
146.721, 67.852, 0.0038
151.020, 67.652, 0.0040
155.445, 67.450, 0.0043
160.000, 67.249, 0.0052
164.688, 67.047, 0.0059
169.514, 66.846, 0.0055
174.481, 66.644, 0.0061
179.594, 66.443, 0.0044
184.856, 66.241, 0.0047
190.273, 66.040, 0.0037
195.849, 65.840, 0.0037
201.587, 65.640, 0.0048
207.494, 65.441, 0.0036
213.574, 65.243, 0.0035
219.833, 65.046, 0.0037
226.274, 64.850, 0.0037
232.905, 64.654, 0.0032
239.729, 64.461, 0.0036
246.754, 64.268, 0.0044
253.984, 64.077, 0.0043
261.426, 63.887, 0.0034
269.087, 63.700, 0.0037
276.972, 63.513, 0.0041
285.088, 63.329, 0.0044
293.441, 63.147, 0.0043
302.040, 62.966, 0.0046
310.890, 62.788, 0.0045
320.000, 62.612, 0.0049
329.377, 62.439, 0.0070
339.028, 62.267, 0.0064
348.962, 62.099, 0.0056
359.188, 61.932, 0.0054
369.713, 61.768, 0.0070
380.546, 61.606, 0.0075
391.697, 61.448, 0.0062
403.175, 61.291, 0.0065
414.989, 61.138, 0.0063
427.149, 60.988, 0.0099
439.665, 60.840, 0.0075
452.548, 60.695, 0.0073
465.809, 60.552, 0.0072
479.458, 60.413, 0.0081
493.507, 60.276, 0.0104
507.968, 60.142, 0.0103
522.853, 60.010, 0.0081
538.174, 59.882, 0.0080
553.943, 59.755, 0.0088
570.175, 59.632, 0.0094
586.883, 59.511, 0.0102
604.080, 59.392, 0.0132
621.780, 59.276, 0.0115
640.000, 59.162, 0.0108
658.753, 59.050, 0.0117
678.056, 58.940, 0.0117
697.925, 58.832, 0.0122
718.376, 58.726, 0.0122
739.426, 58.622, 0.0133
761.093, 58.519, 0.0139
783.394, 58.418, 0.0120
806.349, 58.318, 0.0111
829.977, 58.219, 0.0116
854.297, 58.122, 0.0131
879.330, 58.025, 0.0130
905.097, 57.929, 0.0132
931.618, 57.834, 0.0133
958.917, 57.739, 0.0142
987.015, 57.645, 0.0173
1015.937, 57.550, 0.0175
1045.706, 57.456, 0.0155
1076.347, 57.362, 0.0155
1107.887, 57.267, 0.0164
1140.350, 57.172, 0.0174
1173.765, 57.076, 0.0178
1208.159, 56.980, 0.0186
1243.561, 56.883, 0.0185
1280.000, 56.784, 0.0192
1317.507, 56.684, 0.0201
1356.113, 56.583, 0.0202
1395.850, 56.481, 0.0198
1436.751, 56.376, 0.0210
1478.851, 56.270, 0.0241
1522.185, 56.163, 0.0258
1566.789, 56.053, 0.0226
1612.699, 55.941, 0.0217
1659.955, 55.827, 0.0221
1708.595, 55.711, 0.0230
1758.661, 55.592, 0.0235
1810.193, 55.471, 0.0246
1863.236, 55.347, 0.0245
1917.833, 55.220, 0.0254
1974.030, 55.091, 0.0267
2031.873, 54.959, 0.0272
2091.412, 54.824, 0.0267
2152.695, 54.686, 0.0280
2215.774, 54.546, 0.0292
2280.701, 54.402, 0.0303
2347.530, 54.255, 0.0298
2416.318, 54.105, 0.0311
2487.122, 53.952, 0.0302
2560.000, 53.796, 0.0313
2635.014, 53.637, 0.0319
2712.226, 53.475, 0.0314
2791.700, 53.309, 0.0333
2873.503, 53.141, 0.0323
2957.703, 52.969, 0.0349
3044.370, 52.794, 0.0368
3133.577, 52.618, 0.0354
3225.398, 52.437, 0.0355
3319.909, 52.254, 0.0352
3417.190, 52.068, 0.0367
3517.321, 51.880, 0.0390
3620.387, 51.689, 0.0382
3726.472, 51.495, 0.0386
3835.666, 51.300, 0.0391
3948.060, 51.102, 0.0396
4063.747, 50.902, 0.0407
4182.824, 50.700, 0.0420
4305.390, 50.496, 0.0436
4431.547, 50.289, 0.0444
4561.401, 50.082, 0.0453
4695.061, 49.873, 0.0444
4832.637, 49.661, 0.0444
4974.244, 49.448, 0.0460
5120.000, 49.233, 0.0462
5270.027, 49.015, 0.0468
5424.451, 48.796, 0.0477
5583.399, 48.575, 0.0487
5747.006, 48.353, 0.0505
5915.406, 48.129, 0.0517
6088.740, 47.902, 0.0531
6267.154, 47.676, 0.0518
6450.796, 47.447, 0.0529
6639.818, 47.218, 0.0556
6834.380, 46.987, 0.0554
7034.643, 46.754, 0.0554
7240.773, 46.521, 0.0554
7452.944, 46.284, 0.0519
7671.332, 46.048, 0.0525
7896.120, 45.808, 0.0562
8127.493, 45.569, 0.0589
8365.647, 45.329, 0.0605
8610.779, 45.090, 0.0616
8863.095, 44.851, 0.0646
9122.803, 44.613, 0.0633
9390.121, 44.376, 0.0613
9665.273, 44.136, 0.0637
9948.487, 43.894, 0.0629
10240.000, 43.647, 0.0570
10540.055, 43.398, 0.0500
10848.902, 43.147, 0.0405
