Freq(Hz), Fundamental (dB), THD (%)
10.000, 69.437, 0.0150
10.293, 69.814, 0.0145
10.595, 70.251, 0.0147
10.905, 70.689, 0.0151
11.225, 71.118, 0.0146
11.554, 71.531, 0.0137
11.892, 71.927, 0.0120
12.241, 72.303, 0.0097
12.599, 72.658, 0.0084
12.968, 72.993, 0.0085
13.348, 73.307, 0.0089
13.740, 73.599, 0.0088
14.142, 73.869, 0.0088
14.557, 74.119, 0.0093
14.983, 74.347, 0.0089
15.422, 74.554, 0.0086
15.874, 74.741, 0.0081
16.339, 74.909, 0.0064
16.818, 75.058, 0.0059
17.311, 75.190, 0.0077
17.818, 75.305, 0.0083
18.340, 75.404, 0.0078
18.877, 75.488, 0.0082
19.431, 75.558, 0.0076
20.000, 75.616, 0.0064
20.586, 75.662, 0.0060
21.189, 75.697, 0.0058
21.810, 75.722, 0.0055
22.449, 75.738, 0.0048
23.107, 75.745, 0.0045
23.784, 75.745, 0.0044
24.481, 75.737, 0.0051
25.198, 75.723, 0.0053
25.937, 75.702, 0.0042
26.697, 75.675, 0.0037
27.479, 75.643, 0.0032
28.284, 75.606, 0.0027
29.113, 75.565, 0.0033
29.966, 75.518, 0.0032
30.844, 75.468, 0.0030
31.748, 75.413, 0.0027
32.678, 75.354, 0.0020
33.636, 75.291, 0.0018
34.621, 75.224, 0.0017
35.636, 75.154, 0.0018
36.680, 75.079, 0.0021
37.755, 75.002, 0.0019
38.861, 74.920, 0.0020
40.000, 74.836, 0.0020
41.172, 74.747, 0.0020
42.379, 74.655, 0.0022
43.620, 74.560, 0.0026
44.898, 74.461, 0.0026
46.214, 74.359, 0.0022
47.568, 74.253, 0.0023
48.962, 74.143, 0.0022
50.397, 74.031, 0.0025
51.874, 73.914, 0.0019
53.394, 73.795, 0.0021
54.958, 73.671, 0.0022
56.569, 73.545, 0.0022
58.226, 73.415, 0.0026
59.932, 73.282, 0.0025
61.688, 73.145, 0.0020
63.496, 73.005, 0.0021
65.357, 72.862, 0.0020
67.272, 72.716, 0.0020
69.243, 72.567, 0.0022
71.272, 72.414, 0.0022
73.360, 72.259, 0.0022
75.510, 72.100, 0.0026
77.723, 71.939, 0.0024
80.000, 71.775, 0.0023
82.344, 71.608, 0.0023
84.757, 71.439, 0.0025
87.241, 71.267, 0.0023
89.797, 71.093, 0.0021
92.428, 70.916, 0.0019
95.137, 70.737, 0.0020
97.924, 70.556, 0.0022
100.794, 70.372, 0.0024
103.747, 70.187, 0.0019
106.787, 70.000, 0.0017
109.916, 69.811, 0.0020
113.137, 69.621, 0.0021
116.452, 69.429, 0.0028
119.865, 69.236, 0.0026
123.377, 69.041, 0.0027
126.992, 68.845, 0.0028
130.713, 68.648, 0.0022
134.543, 68.450, 0.0022
138.486, 68.251, 0.0023
142.544, 68.052, 0.0029
146.721, 67.852, 0.0025
151.020, 67.651, 0.0030
155.445, 67.450, 0.0022
160.000, 67.248, 0.0022
164.688, 67.047, 0.0030
169.514, 66.845, 0.0028
174.481, 66.643, 0.0038
179.594, 66.442, 0.0030
184.856, 66.241, 0.0026
190.273, 66.040, 0.0026
195.849, 65.839, 0.0034
201.587, 65.640, 0.0037
207.494, 65.441, 0.0032
213.574, 65.242, 0.0033
219.833, 65.045, 0.0035
226.274, 64.849, 0.0036
232.905, 64.654, 0.0035
239.729, 64.460, 0.0037
246.754, 64.267, 0.0046
253.984, 64.076, 0.0046
261.426, 63.887, 0.0042
269.087, 63.699, 0.0042
276.972, 63.513, 0.0048
285.088, 63.329, 0.0056
293.441, 63.146, 0.0051
302.040, 62.966, 0.0054
310.890, 62.788, 0.0050
320.000, 62.612, 0.0053
329.377, 62.438, 0.0069
339.028, 62.266, 0.0066
348.962, 62.098, 0.0059
359.188, 61.931, 0.0054
369.713, 61.767, 0.0072
380.546, 61.606, 0.0074
391.697, 61.447, 0.0061
403.175, 61.291, 0.0068
414.989, 61.137, 0.0069
427.149, 60.987, 0.0101
439.665, 60.839, 0.0073
452.548, 60.694, 0.0069
465.809, 60.552, 0.0069
479.458, 60.412, 0.0073
493.507, 60.275, 0.0107
507.968, 60.141, 0.0104
522.853, 60.010, 0.0086
538.174, 59.881, 0.0083
553.943, 59.755, 0.0085
570.175, 59.631, 0.0092
586.883, 59.510, 0.0103
604.080, 59.391, 0.0130
621.780, 59.275, 0.0101
640.000, 59.161, 0.0092
658.753, 59.049, 0.0106
678.056, 58.939, 0.0106
697.925, 58.831, 0.0103
718.376, 58.725, 0.0099
739.426, 58.621, 0.0128
761.093, 58.518, 0.0131
783.394, 58.417, 0.0116
806.349, 58.317, 0.0116
829.977, 58.219, 0.0119
854.297, 58.121, 0.0135
879.330, 58.024, 0.0136
905.097, 57.928, 0.0131
931.618, 57.833, 0.0141
958.917, 57.738, 0.0142
987.015, 57.644, 0.0170
1015.937, 57.550, 0.0168
1045.706, 57.455, 0.0159
1076.347, 57.361, 0.0160
1107.887, 57.266, 0.0158
1140.350, 57.171, 0.0156
1173.765, 57.076, 0.0169
1208.159, 56.979, 0.0184
1243.561, 56.882, 0.0175
1280.000, 56.783, 0.0176
1317.507, 56.683, 0.0182
1356.113, 56.582, 0.0187
1395.850, 56.480, 0.0194
1436.751, 56.376, 0.0195
1478.851, 56.270, 0.0210
1522.185, 56.162, 0.0228
1566.789, 56.052, 0.0219
1612.699, 55.940, 0.0216
1659.955, 55.826, 0.0218
1708.595, 55.710, 0.0226
1758.661, 55.591, 0.0231
1810.193, 55.470, 0.0249
1863.236, 55.346, 0.0247
1917.833, 55.219, 0.0249
1974.030, 55.090, 0.0265
2031.873, 54.958, 0.0271
2091.412, 54.823, 0.0272
2152.695, 54.685, 0.0283
2215.774, 54.545, 0.0288
2280.701, 54.401, 0.0299
2347.530, 54.254, 0.0306
2416.318, 54.104, 0.0307
2487.122, 53.951, 0.0305
2560.000, 53.795, 0.0305
2635.014, 53.636, 0.0313
2712.226, 53.474, 0.0312
2791.700, 53.308, 0.0330
2873.503, 53.140, 0.0331
2957.703, 52.968, 0.0358
3044.370, 52.794, 0.0371
3133.577, 52.617, 0.0360
3225.398, 52.436, 0.0342
3319.909, 52.253, 0.0348
3417.190, 52.067, 0.0355
3517.321, 51.879, 0.0366
3620.387, 51.688, 0.0373
3726.472, 51.495, 0.0386
3835.666, 51.299, 0.0375
3948.060, 51.101, 0.0392
4063.747, 50.901, 0.0412
4182.824, 50.699, 0.0424
4305.390, 50.495, 0.0428
4431.547, 50.289, 0.0414
4561.401, 50.081, 0.0425
4695.061, 49.872, 0.0446
4832.637, 49.660, 0.0468
4974.244, 49.447, 0.0457
5120.000, 49.232, 0.0448
5270.027, 49.015, 0.0471
5424.451, 48.796, 0.0480
5583.399, 48.575, 0.0485
5747.006, 48.352, 0.0469
5915.406, 48.127, 0.0506
6088.740, 47.901, 0.0525
6267.154, 47.675, 0.0545
6450.796, 47.446, 0.0550
6639.818, 47.217, 0.0556
6834.380, 46.986, 0.0564
7034.643, 46.753, 0.0555
7240.773, 46.520, 0.0541
7452.944, 46.284, 0.0506
7671.332, 46.047, 0.0516
7896.120, 45.808, 0.0540
8127.493, 45.568, 0.0594
8365.647, 45.328, 0.0610
8610.779, 45.089, 0.0625
8863.095, 44.851, 0.0655
9122.803, 44.613, 0.0675
9390.121, 44.375, 0.0669
9665.273, 44.135, 0.0673
9948.487, 43.892, 0.0637
10240.000, 43.646, 0.0554
10540.055, 43.397, 0.0485
10848.902, 43.146, 0.0409
